experiment 2019-01-28_au in o2 800um nozzle_irregular-January212020161648				
Counts per Second				
	Characteristic Energy eV	1486.61	Acquisition Time s	1
KE_Counts per Second	BE_Counts per Second	CPS_Counts per Second	Background_Counts per Second	
1306.61	180	1021.48	989.847	
1306.71	179.9	1015.41	1043.01	
1306.81	179.8	1015.83	993.842	
1306.91	179.7	1002.79	1025.93	
1307.01	179.6	995.625	1000.08	
1307.11	179.5	990.726	996.755	
1307.21	179.4	995.56	973.115	
1307.31	179.3	1021.38	979.732	
1307.41	179.2	991.408	919.145	
1307.51	179.1	1010.43	1029.75	
1307.61	179	1000.15	1002.84	
1307.71	178.9	1006.98	975.202	
1307.81	178.8	1013.54	1032.09	
1307.91	178.7	1026.04	1026.55	
1308.01	178.6	1021.23	1038.19	
1308.11	178.5	1050.16	1098.24	
1308.21	178.4	1039.47	958.055	
1308.31	178.3	1033.73	1005.98	
1308.41	178.2	1032.92	1038.54	
1308.51	178.1	1018.36	1036.92	
1308.61	178	1031.47	1012.17	
1308.71	177.9	1023.7	958.167	
1308.81	177.8	1024.64	1039.45	
1308.91	177.7	1033.16	1077.78	
1309.01	177.6	1032.77	987.545	
1309.11	177.5	1029.31	1017	
1309.21	177.4	1024.3	1058.59	
1309.31	177.3	1030.97	1042	
1309.41	177.2	1051.41	1096.4	
1309.51	177.1	1012.16	1066.4	
1309.61	177	1011.25	900.77	
1309.71	176.9	1028	1039	
1309.81	176.8	1035.4	1073.67	
1309.91	176.7	1035.49	1075.05	
1310.01	176.6	1042.51	1049.72	
1310.11	176.5	1008.24	1042.51	
1310.21	176.4	1027.77	1118.85	
1310.31	176.3	1004.72	1048.94	
1310.41	176.2	1010.92	1023.82	
1310.51	176.1	995.132	874.95	
1310.61	176	1010.22	1005.11	
1310.71	175.9	1030.53	1050.51	
1310.81	175.8	1033.66	1064.78	
1310.91	175.7	1011.34	1021.8	
1311.01	175.6	1014.37	983.565	
1311.11	175.5	1017.42	1046.42	
1311.21	175.4	1025.95	1048.95	
1311.31	175.3	1035.96	988.893	
1311.41	175.2	1011.06	981.42	
1311.51	175.1	1022.88	1023.85	
1311.61	175	1015.63	1058.76	
1311.71	174.9	1024.95	1021.79	
1311.81	174.8	1003.69	1030.5	
1311.91	174.7	1017.27	1040.42	
1312.01	174.6	1030.3	1137.26	
1312.11	174.5	1018.9	1035.64	
1312.21	174.4	1043.05	950.732	
1312.31	174.3	1014.07	977.097	
1312.41	174.2	1027.74	1064.68	
1312.51	174.1	1037.57	988.55	
1312.61	174	1043.02	972.938	
1312.71	173.9	1025.41	1061.17	
1312.81	173.8	1028.68	1090.7	
1312.91	173.7	1041.58	1101.42	
1313.01	173.6	1031.24	1026.55	
1313.11	173.5	1033.6	1056.23	
1313.21	173.4	1034.91	1001.29	
1313.31	173.3	1029.13	997.41	
1313.41	173.2	1041.87	1053.08	
1313.51	173.1	1035.92	1051.65	
1313.61	173	1053.23	1038.11	
1313.71	172.9	1024.81	1061.21	
1313.81	172.8	1027.6	981.903	
1313.91	172.7	1038.43	995.65	
1314.01	172.6	1055.44	1079.33	
1314.11	172.5	1050.31	1062.65	
1314.21	172.4	1018.86	953.632	
1314.31	172.3	1025.12	978.847	
1314.41	172.2	1039.36	1058.38	
1314.51	172.1	1069.16	1117.71	
1314.61	172	1045.21	1040.05	
1314.71	171.9	1059.59	1068.49	
1314.81	171.8	1055.36	1060.19	
1314.91	171.7	1039.83	1080.01	
1315.01	171.6	1030.65	1043.77	
1315.11	171.5	1025.42	936.86	
1315.21	171.4	1038.34	1008.74	
1315.31	171.3	1039.57	1042.29	
1315.41	171.2	1029.88	960.977	
1315.51	171.1	1055.15	1015.01	
1315.61	171	1024.91	986.737	
1315.71	170.9	1042.15	1064.85	
1315.81	170.8	1050.36	1081.58	
1315.91	170.7	1054.57	1016.1	
1316.01	170.6	1024.44	1046.43	
1316.11	170.5	1026.34	1042.36	
1316.21	170.4	1021.16	1015.64	
1316.31	170.3	1051.7	1039.65	
1316.41	170.2	1014	1027.34	
1316.51	170.1	1016.28	992.422	
1316.61	170	1039.15	1019.76	
1316.71	169.9	1076.62	1066.56	
1316.81	169.8	1070.09	1088.94	
1316.91	169.7	1040.35	1018.32	
1317.01	169.6	1043.48	1017.39	
1317.11	169.5	1041.09	996.945	
1317.21	169.4	1035.62	989.197	
1317.31	169.3	1045.11	1074.16	
1317.41	169.2	1018.85	1003.66	
1317.51	169.1	1047.1	1042.04	
1317.61	169	1050.9	1061.29	
1317.71	168.9	1009	1053.4	
1317.81	168.8	1037.92	1011.65	
1317.91	168.7	1032.91	1065.66	
1318.01	168.6	1028.68	1020.77	
1318.11	168.5	1055.27	1063.19	
1318.21	168.4	1043.78	1090.04	
1318.31	168.3	1046.4	1105.73	
1318.41	168.2	1030.58	1039.17	
1318.51	168.1	1013.02	949.335	
1318.61	168	1035.68	1034.88	
1318.71	167.9	1010.92	1031.43	
1318.81	167.8	1036.75	1126.22	
1318.91	167.7	1052.05	1110.4	
1319.01	167.6	1051.9	1001.28	
1319.11	167.5	1029.99	1044.14	
1319.21	167.4	1038.09	1019.24	
1319.31	167.3	1074.46	1033.31	
1319.41	167.2	1086.02	1062.26	
1319.51	167.1	1093.02	1074.9	
1319.61	167	1053.83	1075.02	
1319.71	166.9	1061.08	1082.23	
1319.81	166.8	1049.12	1058.78	
1319.91	166.7	1062.85	1041.16	
1320.01	166.6	1032.42	982.13	
1320.11	166.5	1022.85	1053.56	
1320.21	166.4	1045.25	1035.32	
1320.31	166.3	1041.16	984.497	
1320.41	166.2	1018.92	1010.9	
1320.51	166.1	1056.09	976.025	
1320.61	166	1050.86	1054.65	
1320.71	165.9	1033.42	1004.38	
1320.81	165.8	1062.04	1074.62	
1320.91	165.7	1040.28	1100.72	
1321.01	165.6	1060.6	1024.97	
1321.11	165.5	1042.81	1054.2	
1321.21	165.4	1064.1	1102.11	
1321.31	165.3	1057.29	1019.89	
1321.41	165.2	1055.12	1048.99	
1321.51	165.1	1015.28	1095.37	
1321.61	165	1026.54	1051.84	
1321.71	164.9	1053.82	1050.08	
1321.81	164.8	1054.63	1054.68	
1321.91	164.7	1054.63	1048.36	
1322.01	164.6	1034.96	1017.7	
1322.11	164.5	1048.2	1076.3	
1322.21	164.4	1052.41	1072.18	
1322.31	164.3	1061.15	1090.04	
1322.41	164.2	1054.75	1082.1	
1322.51	164.1	1036.82	1170.44	
1322.61	164	1037.48	1004.06	
1322.71	163.9	1070.71	1038.94	
1322.81	163.8	1056.27	1004.07	
1322.91	163.7	1073.71	1127.5	
1323.01	163.6	1048.37	1092.25	
1323.11	163.5	1068.75	1092.88	
1323.21	163.4	1039.61	1081.09	
1323.31	163.3	1046.86	1053.3	
1323.41	163.2	1040.39	1124.23	
1323.51	163.1	1069.75	1006.39	
1323.61	163	1062.88	994.152	
1323.71	162.9	1066.32	1058.27	
1323.81	162.8	1067.37	1073.2	
1323.91	162.7	1065.49	1096.79	
1324.01	162.6	1042.96	1089.31	
1324.11	162.5	1072.56	997.193	
1324.21	162.4	1050.79	997.648	
1324.31	162.3	1063.11	1115.18	
1324.41	162.2	1067.2	1133.93	
1324.51	162.1	1075.94	1061.16	
1324.61	162	1084.84	1037.06	
1324.71	161.9	1049.94	1049.57	
1324.81	161.8	1046.76	1116.86	
1324.91	161.7	1077.18	1116.26	
1325.01	161.6	1045.95	1077.47	
1325.11	161.5	1023.11	1003.66	
1325.21	161.4	1052.49	961.557	
1325.31	161.3	1080.2	1096.64	
1325.41	161.2	1065.46	1076.7	
1325.51	161.1	1074.26	1144.87	
1325.61	161	1085.48	1102.64	
1325.71	160.9	1083.47	1098.69	
1325.81	160.8	1076.76	1067.72	
1325.91	160.7	1051.35	1038.29	
1326.01	160.6	1071.1	1032.04	
1326.11	160.5	1078.85	1106.89	
1326.21	160.4	1056.6	1044.52	
1326.31	160.3	1057.78	1031.91	
1326.41	160.2	1046.82	1061.61	
1326.51	160.1	1081.28	1046.18	
1326.61	160	1086.82	1057.15	
1326.71	159.9	1071.8	1048.53	
1326.81	159.8	1053	1063.95	
1326.91	159.7	1055.72	1047.2	
1327.01	159.6	1067.97	1062.91	
1327.11	159.5	1040.67	1049.03	
1327.21	159.4	1053.05	1064.69	
1327.31	159.3	1064.31	1039.27	
1327.41	159.2	1093.6	1163.19	
1327.51	159.1	1096.46	1098.25	
1327.61	159	1086.97	1019.12	
1327.71	158.9	1062.84	1069.01	
1327.81	158.8	1061.14	1083.19	
1327.91	158.7	1053.95	1007.49	
1328.01	158.6	1065.67	977.477	
1328.11	158.5	1075.54	1104.93	
1328.21	158.4	1073.47	1138.05	
1328.31	158.3	1091.97	1088.48	
1328.41	158.2	1095.17	1066.15	
1328.51	158.1	1097.12	1090.77	
1328.61	158	1067.14	1166.81	
1328.71	157.9	1044.77	1066.68	
1328.81	157.8	1064.15	1053.18	
1328.91	157.7	1058.95	1064.45	
1329.01	157.6	1053.87	1003.58	
1329.11	157.5	1069.35	1053.17	
1329.21	157.4	1074.85	1094.83	
1329.31	157.3	1060.94	1038.38	
1329.41	157.2	1079.9	1135.65	
1329.51	157.1	1088.25	1098.12	
1329.61	157	1074.5	1102.5	
1329.71	156.9	1063.8	1062.68	
1329.81	156.8	1105.85	1203.61	
1329.91	156.7	1077.94	1131.78	
1330.01	156.6	1070.4	1153.81	
1330.11	156.5	1091.83	1172.29	
1330.21	156.4	1106.88	1182.19	
1330.31	156.3	1110.39	1189.09	
1330.41	156.2	1086.22	1052.23	
1330.51	156.1	1073.5	1074.81	
1330.61	156	1090.96	1071.78	
1330.71	155.9	1099.08	1086.58	
1330.81	155.8	1090.24	1109.08	
1330.91	155.7	1098.7	1149.98	
1331.01	155.6	1092.27	1141.6	
1331.11	155.5	1074.64	1051.14	
1331.21	155.4	1102.48	1057.38	
1331.31	155.3	1070.37	1074.73	
1331.41	155.2	1099.48	1117.84	
1331.51	155.1	1061.23	1019.34	
1331.61	155	1095.24	1176.37	
1331.71	154.9	1094.59	1097.95	
1331.81	154.8	1071.87	1121.99	
1331.91	154.7	1103.63	1202.37	
1332.01	154.6	1122.76	1206.22	
1332.11	154.5	1097.86	1173.21	
1332.21	154.4	1062.94	1010.75	
1332.31	154.3	1083.7	1067.8	
1332.41	154.2	1097.41	1045.59	
1332.51	154.1	1110	1062.13	
1332.61	154	1096.23	1067.91	
1332.71	153.9	1108.52	1070.92	
1332.81	153.8	1096.56	1092.11	
1332.91	153.7	1098.47	1062.2	
1333.01	153.6	1067.26	1096.57	
1333.11	153.5	1065.36	1127.45	
1333.21	153.4	1108.38	1145.23	
1333.31	153.3	1090.04	1123.56	
1333.41	153.2	1097.13	1077.36	
1333.51	153.1	1066.03	1094.8	
1333.61	153	1086.56	1149.28	
1333.71	152.9	1103.63	1108.15	
1333.81	152.8	1102.1	1117.02	
1333.91	152.7	1093.87	1100.67	
1334.01	152.6	1120.86	1065.04	
1334.11	152.5	1087.4	1078.41	
1334.21	152.4	1097.43	1135.03	
1334.31	152.3	1108.12	1117.67	
1334.41	152.2	1095.97	1123.81	
1334.51	152.1	1083.46	1003.93	
1334.61	152	1097.79	1131.71	
1334.71	151.9	1088.53	1092.25	
1334.81	151.8	1088.63	1096.37	
1334.91	151.7	1100.67	1135.16	
1335.01	151.6	1108.72	1110.14	
1335.11	151.5	1122.55	1109.16	
1335.21	151.4	1112.05	1090.1	
1335.31	151.3	1111.12	1074.26	
1335.41	151.2	1102.73	1042.42	
1335.51	151.1	1086.89	1068.09	
1335.61	151	1090.61	1091.33	
1335.71	150.9	1110.88	1067.28	
1335.81	150.8	1144.3	1138.29	
1335.91	150.7	1118.14	1057.06	
1336.01	150.6	1136.53	1074.81	
1336.11	150.5	1121.72	1163.57	
1336.21	150.4	1080.86	1107.72	
1336.31	150.3	1100.81	1069.54	
1336.41	150.2	1101.47	1048.57	
1336.51	150.1	1088.08	1026.25	
1336.61	150	1096.48	1089.07	
1336.71	149.9	1124.41	1112.98	
1336.81	149.8	1111.09	1130.07	
1336.91	149.7	1094.34	1054.68	
1337.01	149.6	1103.85	1095.44	
1337.11	149.5	1106.68	1073.39	
1337.21	149.4	1101.74	1094.03	
1337.31	149.3	1097.91	1182.09	
1337.41	149.2	1106.72	1113.19	
1337.51	149.1	1115.67	1079.64	
1337.61	149	1108.11	1103.3	
1337.71	148.9	1087.8	1065.22	
1337.81	148.8	1107.19	1148.41	
1337.91	148.7	1132.98	1106.7	
1338.01	148.6	1102.85	1093.43	
1338.11	148.5	1075.46	1090.31	
1338.21	148.4	1076.65	1036.87	
1338.31	148.3	1114.08	1124.88	
1338.41	148.2	1098.6	1052.26	
1338.51	148.1	1109.61	1120.85	
1338.61	148	1134.7	1127.56	
1338.71	147.9	1114.13	1064.92	
1338.81	147.8	1130.24	1127.31	
1338.91	147.7	1097.76	1122.1	
1339.01	147.6	1134.12	1149.25	
1339.11	147.5	1113.99	1083.37	
1339.21	147.4	1116.7	1122.37	
1339.31	147.3	1097.97	1049.08	
1339.41	147.2	1092.36	1085.45	
1339.51	147.1	1102.11	1066.82	
1339.61	147	1097.7	1040.47	
1339.71	146.9	1091.82	1091.69	
1339.81	146.8	1114.39	1104.8	
1339.91	146.7	1102.54	1059.02	
1340.01	146.6	1071.22	1184.84	
1340.11	146.5	1109.97	1202.55	
1340.21	146.4	1150.43	1115.68	
1340.31	146.3	1095.43	1124.4	
1340.41	146.2	1107.69	1145.81	
1340.51	146.1	1125.74	1201.95	
1340.61	146	1115.49	1173.02	
1340.71	145.9	1111.2	1064.27	
1340.81	145.8	1098.91	1126.5	
1340.91	145.7	1087.05	1084.39	
1341.01	145.6	1093.64	1069.01	
1341.11	145.5	1126.13	1105.17	
1341.21	145.4	1079.08	1142.62	
1341.31	145.3	1135.44	1206.78	
1341.41	145.2	1102.56	1108.02	
1341.51	145.1	1092.38	1110.71	
1341.61	145	1117.66	1116.63	
1341.71	144.9	1105.22	1123.56	
1341.81	144.8	1101.08	1063.67	
1341.91	144.7	1092.57	1091.9	
1342.01	144.6	1123.73	1151.76	
1342.11	144.5	1108.66	1098.5	
1342.21	144.4	1114.76	1058.82	
1342.31	144.3	1108.74	1055.17	
1342.41	144.2	1109	1118.76	
1342.51	144.1	1117.87	1153.59	
1342.61	144	1119.97	1134.99	
1342.71	143.9	1117.53	1184.83	
1342.81	143.8	1134.67	1072.51	
1342.91	143.7	1130.3	1099.56	
1343.01	143.6	1132.12	1145.62	
1343.11	143.5	1108.19	1151.14	
1343.21	143.4	1124.02	1078.56	
1343.31	143.3	1105.5	1115.35	
1343.41	143.2	1128.37	1161.31	
1343.51	143.1	1142.74	1184.76	
1343.61	143	1109.25	1118.84	
1343.71	142.9	1096.67	1075.47	
1343.81	142.8	1128.45	1087.72	
1343.91	142.7	1122.45	1140.81	
1344.01	142.6	1117.49	1057.88	
1344.11	142.5	1126.79	1048.05	
1344.21	142.4	1135.99	1113.07	
1344.31	142.3	1155.49	1090.65	
1344.41	142.2	1106.29	1106.29	
1344.51	142.1	1106.87	1146.53	
1344.61	142	1143.6	1275.43	
1344.71	141.9	1128.59	1138.35	
1344.81	141.8	1136.31	1166.77	
1344.91	141.7	1145.35	1207.97	
1345.01	141.6	1114	1153.89	
1345.11	141.5	1121.15	1147.72	
1345.21	141.4	1127.55	1153.25	
1345.31	141.3	1110.75	1116.87	
1345.41	141.2	1131.25	1107.11	
1345.51	141.1	1121.65	1094.33	
1345.61	141	1117.23	1125.3	
1345.71	140.9	1142.47	1186.72	
1345.81	140.8	1131.35	1162.29	
1345.91	140.7	1121.86	1124.92	
1346.01	140.6	1135.81	1102.63	
1346.11	140.5	1139.01	1133.94	
1346.21	140.4	1142.41	1205.18	
1346.31	140.3	1141.17	1127.67	
1346.41	140.2	1137.42	1085.58	
1346.51	140.1	1130.45	1067.24	
1346.61	140	1141.13	1179.3	
1346.71	139.9	1155.88	1120.02	
1346.81	139.8	1137.18	1156.73	
1346.91	139.7	1126.39	1099.6	
1347.01	139.6	1117.94	1131.86	
1347.11	139.5	1136.79	1045.66	
1347.21	139.4	1143.5	1060.25	
1347.31	139.3	1130.53	1097.74	
1347.41	139.2	1106.36	1090.64	
1347.51	139.1	1106.05	1132.44	
1347.61	139	1126.85	1166.01	
1347.71	138.9	1130.2	1171.72	
1347.81	138.8	1114.84	1139.84	
1347.91	138.7	1127.4	1171.97	
1348.01	138.6	1157.18	1215.15	
1348.11	138.5	1141.86	1113.01	
1348.21	138.4	1159.17	1212.59	
1348.31	138.3	1160.31	1207.02	
1348.41	138.2	1140.16	1132.26	
1348.51	138.1	1150.84	1176.32	
1348.61	138	1143.81	1222.53	
1348.71	137.9	1129.7	1137.45	
1348.81	137.8	1130.49	1101.33	
1348.91	137.7	1130.25	1085.37	
1349.01	137.6	1143.39	1136.97	
1349.11	137.5	1153.28	1166.28	
1349.21	137.4	1105.35	1082.95	
1349.31	137.3	1126.84	1123.06	
1349.41	137.2	1144.77	1146.51	
1349.51	137.1	1121.76	1053.85	
1349.61	137	1102.03	1013.3	
1349.71	136.9	1133.45	1215.52	
1349.81	136.8	1151.71	1174.5	
1349.91	136.7	1148.7	1119.71	
1350.01	136.6	1124.99	1167.36	
1350.11	136.5	1136.63	1191.62	
1350.21	136.4	1132.12	1088.53	
1350.31	136.3	1163.71	1132.8	
1350.41	136.2	1145.95	1134.58	
1350.51	136.1	1161.24	1199.42	
1350.61	136	1153.94	1158.15	
1350.71	135.9	1163.53	1175.29	
1350.81	135.8	1135.04	1047.07	
1350.91	135.7	1135.62	1163.43	
1351.01	135.6	1175.58	1207.66	
1351.11	135.5	1149.43	1192.84	
1351.21	135.4	1129.05	1194.91	
1351.31	135.3	1130.69	1184.68	
1351.41	135.2	1157.64	1157.79	
1351.51	135.1	1153.85	1195.08	
1351.61	135	1134.27	1175.53	
1351.71	134.9	1119.2	1151.69	
1351.81	134.8	1142.89	1074.76	
1351.91	134.7	1129.34	1061.4	
1352.01	134.6	1145.22	1081.44	
1352.11	134.5	1144.85	1090.18	
1352.21	134.4	1140.09	1152.32	
1352.31	134.3	1140.62	1152.85	
1352.41	134.2	1154.99	1190.82	
1352.51	134.1	1129.7	1144.04	
1352.61	134	1137.6	1135.46	
1352.71	133.9	1145.78	1096.02	
1352.81	133.8	1177.39	1119.26	
1352.91	133.7	1137.55	1126.91	
1353.01	133.6	1116.74	1084.17	
1353.11	133.5	1163.93	1156.43	
1353.21	133.4	1174.38	1201.39	
1353.31	133.3	1167.38	1123.22	
1353.41	133.2	1185.18	1127	
1353.51	133.1	1175.25	1122.25	
1353.61	133	1189.33	1128.16	
1353.71	132.9	1189.21	1185.25	
1353.81	132.8	1174.6	1117.05	
1353.91	132.7	1154.78	1184.61	
1354.01	132.6	1143.97	1215.35	
1354.11	132.5	1147.5	1206.66	
1354.21	132.4	1144.79	1191.63	
1354.31	132.3	1145.4	1167.22	
1354.41	132.2	1147.58	1115.27	
1354.51	132.1	1149.68	1147.56	
1354.61	132	1162.58	1097.4	
1354.71	131.9	1185.57	1099.08	
1354.81	131.8	1144.4	1117.89	
1354.91	131.7	1160.26	1092.63	
1355.01	131.6	1181.36	1156.7	
1355.11	131.5	1161.57	1194.02	
1355.21	131.4	1156.01	1138.66	
1355.31	131.3	1179.79	1190.58	
1355.41	131.2	1155.04	1163.14	
1355.51	131.1	1173.88	1151.86	
1355.61	131	1150.07	1130.4	
1355.71	130.9	1159.29	1144.02	
1355.81	130.8	1161.17	1214.99	
1355.91	130.7	1192.49	1196.53	
1356.01	130.6	1149.96	1130.84	
1356.11	130.5	1162.8	1204.39	
1356.21	130.4	1166.72	1228.7	
1356.31	130.3	1127.55	1133.13	
1356.41	130.2	1133.66	1122.66	
1356.51	130.1	1136.12	1148.42	
1356.61	130	1145.11	1180.39	
1356.66	129.95	1137.78	1168.26	
1356.71	129.9	1149.14	1175.01	
1356.76	129.85	1161.37	1178.05	
1356.81	129.8	1145.42	1150.56	
1356.86	129.75	1126.93	1129.69	
1356.91	129.7	1132.63	1123.84	
1356.96	129.65	1148.72	1155.11	
1357.01	129.6	1142.98	1136.18	
1357.06	129.55	1135.59	1140.12	
1357.11	129.5	1149.6	1164.29	
1357.16	129.45	1143.67	1134.53	
1357.21	129.4	1160	1178.42	
1357.26	129.35	1134.41	1100.68	
1357.31	129.3	1124.82	1117.38	
1357.36	129.25	1141.18	1166.94	
1357.41	129.2	1148.57	1154.92	
1357.46	129.15	1142.74	1150.98	
1357.51	129.1	1158.02	1132.19	
1357.56	129.05	1148.74	1133.42	
1357.61	129	1160.75	1125.71	
1357.66	128.95	1158.93	1167.22	
1357.71	128.9	1165.54	1151.03	
1357.76	128.85	1160.8	1153.75	
1357.81	128.8	1166.01	1188.05	
1357.86	128.75	1147.31	1178.1	
1357.91	128.7	1154.44	1168.61	
1357.96	128.65	1149.55	1132.77	
1358.01	128.6	1141.13	1131.16	
1358.06	128.55	1144.12	1173.75	
1358.11	128.5	1155.02	1191.04	
1358.16	128.45	1154.5	1188.99	
1358.21	128.4	1163.74	1156.45	
1358.26	128.35	1160.03	1142.26	
1358.31	128.3	1166.33	1191.35	
1358.36	128.25	1151.96	1134.48	
1358.41	128.2	1148.32	1142.23	
1358.46	128.15	1153.87	1128	
1358.51	128.1	1142.71	1146.16	
1358.56	128.05	1152.09	1226	
1358.61	128	1140.86	1167.79	
1358.66	127.95	1143.21	1154.36	
1358.71	127.9	1164.63	1190.49	
1358.76	127.85	1175.86	1194.64	
1358.81	127.8	1167.81	1188.8	
1358.86	127.75	1170.99	1169.02	
1358.91	127.7	1155.06	1172.39	
1358.96	127.65	1132.6	1203.97	
1359.01	127.6	1157.12	1160.82	
1359.06	127.55	1167.76	1114.95	
1359.11	127.5	1154.51	1123.33	
1359.16	127.45	1160.63	1131.82	
1359.21	127.4	1153.38	1127.5	
1359.26	127.35	1157.16	1178.6	
1359.31	127.3	1157.36	1109.25	
1359.36	127.25	1151.96	1179.97	
1359.41	127.2	1169.27	1141.21	
1359.46	127.15	1165.33	1173.05	
1359.51	127.1	1152.08	1193.41	
1359.56	127.05	1163.7	1138.46	
1359.61	127	1157.31	1204.53	
1359.66	126.95	1157.63	1187.78	
1359.71	126.9	1155.25	1181.21	
1359.76	126.85	1147.84	1178.32	
1359.81	126.8	1162.87	1178.9	
1359.86	126.75	1162.4	1169.36	
1359.91	126.7	1177.62	1223.49	
1359.96	126.65	1169.71	1175.54	
1360.01	126.6	1157.14	1214.58	
1360.06	126.55	1158.93	1200.66	
1360.11	126.5	1168.33	1155.9	
1360.16	126.45	1153.33	1156.75	
1360.21	126.4	1160.98	1133.81	
1360.26	126.35	1150.12	1182.67	
1360.31	126.3	1150.43	1167.13	
1360.36	126.25	1155.88	1178.68	
1360.41	126.2	1168.93	1155	
1360.46	126.15	1158.14	1160.08	
1360.51	126.1	1164.14	1217.45	
1360.56	126.05	1154.36	1118.85	
1360.61	126	1148.53	1155.46	
1360.66	125.95	1147.57	1125.2	
1360.71	125.9	1153.94	1162.02	
1360.76	125.85	1161.7	1228.04	
1360.81	125.8	1166.35	1145.48	
1360.86	125.75	1172.58	1196.07	
1360.91	125.7	1167.33	1164.16	
1360.96	125.65	1168.29	1175.63	
1361.01	125.6	1178.52	1127.42	
1361.06	125.55	1169.47	1137.67	
1361.11	125.5	1175.11	1179.22	
1361.16	125.45	1154.1	1132.16	
1361.21	125.4	1161.36	1169.07	
1361.26	125.35	1164.5	1164.17	
1361.31	125.3	1173.46	1133.67	
1361.36	125.25	1176.94	1174.34	
1361.41	125.2	1174.43	1160.75	
1361.46	125.15	1165.81	1167.67	
1361.51	125.1	1181.89	1121.74	
1361.56	125.05	1173.75	1178.11	
1361.61	125	1160.06	1150.3	
1361.66	124.95	1156.6	1116.12	
1361.71	124.9	1153.81	1187.45	
1361.76	124.85	1161.45	1163.07	
1361.81	124.8	1161.98	1173.9	
1361.86	124.75	1157.58	1144.19	
1361.91	124.7	1160.77	1197.24	
1361.96	124.65	1163.37	1199.76	
1362.01	124.6	1168.03	1201.06	
1362.06	124.55	1182.87	1197.85	
1362.11	124.5	1170.76	1104.54	
1362.16	124.45	1155.58	1107.05	
1362.21	124.4	1175.84	1138.38	
1362.26	124.35	1163.29	1138.16	
1362.31	124.3	1162.67	1106.75	
1362.36	124.25	1177.87	1152.97	
1362.41	124.2	1168.99	1158.97	
1362.46	124.15	1165.94	1141.85	
1362.51	124.1	1166.14	1174.79	
1362.56	124.05	1162.24	1159.72	
1362.61	124	1170.66	1174.36	
1362.66	123.95	1148.31	1219.4	
1362.71	123.9	1174.59	1179.71	
1362.76	123.85	1171.56	1190.23	
1362.81	123.8	1169.84	1168.96	
1362.86	123.75	1174.9	1180.9	
1362.91	123.7	1152.24	1161.21	
1362.96	123.65	1168.05	1151.62	
1363.01	123.6	1162.45	1137.92	
1363.06	123.55	1168.29	1178.68	
1363.11	123.5	1171.15	1148.06	
1363.16	123.45	1156.18	1163.52	
1363.21	123.4	1162.91	1144.11	
1363.26	123.35	1169.04	1174.72	
1363.31	123.3	1161.96	1140.49	
1363.36	123.25	1179.38	1203.98	
1363.41	123.2	1183.54	1211.02	
1363.46	123.15	1164.42	1134.8	
1363.51	123.1	1171.21	1121.99	
1363.56	123.05	1176.81	1165.51	
1363.61	123	1158.54	1148.8	
1363.66	122.95	1175.53	1142.56	
1363.71	122.9	1156.92	1175.76	
1363.76	122.85	1163.02	1130.05	
