c:\users\mark\owncloud\muelheim group\projects\gas phase background\au in n2 300um nozzle\20180228 au gas phase background in n2 - au4f.vms			
Counts per Second			
	Characteristic Energy eV	1486.61	1
KE_Counts per Second	BE_Counts per Second	CPS_Counts per Second	
1306.61	180	1055.65	
1306.71	179.9	1041.84	
1306.81	179.8	1035.81	
1306.91	179.7	1024.24	
1307.01	179.6	1033.36	
1307.11	179.5	1038.59	
1307.21	179.4	1039.87	
1307.31	179.3	1070.09	
1307.41	179.2	1059.31	
1307.51	179.1	1028.24	
1307.61	179	1056.43	
1307.71	178.9	1033.39	
1307.81	178.8	1026.74	
1307.91	178.7	1035.96	
1308.01	178.6	1048.98	
1308.11	178.5	1040.68	
1308.21	178.4	1040.82	
1308.31	178.3	1037.33	
1308.41	178.2	1053.89	
1308.51	178.1	1033.94	
1308.61	178	1053.18	
1308.71	177.9	1059.06	
1308.81	177.8	1060.95	
1308.91	177.7	1049.82	
1309.01	177.6	1047.03	
1309.11	177.5	1061.74	
1309.21	177.4	1069.6	
1309.31	177.3	1041.23	
1309.41	177.2	1033	
1309.51	177.1	1028.08	
1309.61	177	1033.73	
1309.71	176.9	1055.13	
1309.81	176.8	1058.94	
1309.91	176.7	1067.18	
1310.01	176.6	1055.04	
1310.11	176.5	1061.25	
1310.21	176.4	1058.31	
1310.31	176.3	1022.24	
1310.41	176.2	1026.16	
1310.51	176.1	1044.39	
1310.61	176	1041.33	
1310.71	175.9	1038.94	
1310.81	175.8	1050.66	
1310.91	175.7	1072.95	
1311.01	175.6	1058.27	
1311.11	175.5	1045.58	
1311.21	175.4	1083.4	
1311.31	175.3	1042.43	
1311.41	175.2	1048.37	
1311.51	175.1	1057.72	
1311.61	175	1071.21	
1311.71	174.9	1068.32	
1311.81	174.8	1072.79	
1311.91	174.7	1081.51	
1312.01	174.6	1061.94	
1312.11	174.5	1069.5	
1312.21	174.4	1057.92	
1312.31	174.3	1068.49	
1312.41	174.2	1072.67	
1312.51	174.1	1065.02	
1312.61	174	1068.73	
1312.71	173.9	1060.59	
1312.81	173.8	1040.53	
1312.91	173.7	1064.77	
1313.01	173.6	1083.42	
1313.11	173.5	1066.7	
1313.21	173.4	1056	
1313.31	173.3	1057	
1313.41	173.2	1067.97	
1313.51	173.1	1059.95	
1313.61	173	1055.74	
1313.71	172.9	1059.77	
1313.81	172.8	1066.96	
1313.91	172.7	1065.07	
1314.01	172.6	1065.51	
1314.11	172.5	1052.88	
1314.21	172.4	1039.14	
1314.31	172.3	1038.77	
1314.41	172.2	1060.22	
1314.51	172.1	1067.7	
1314.61	172	1052.86	
1314.71	171.9	1034.88	
1314.81	171.8	1033.82	
1314.91	171.7	1070.51	
1315.01	171.6	1068.45	
1315.11	171.5	1068.04	
1315.21	171.4	1076.37	
1315.31	171.3	1077.3	
1315.41	171.2	1054.94	
1315.51	171.1	1051.42	
1315.61	171	1049.4	
1315.71	170.9	1044	
1315.81	170.8	1056.14	
1315.91	170.7	1060.71	
1316.01	170.6	1063.3	
1316.11	170.5	1058.1	
1316.21	170.4	1067.24	
1316.31	170.3	1069.54	
1316.41	170.2	1038.64	
1316.51	170.1	1069.04	
1316.61	170	1055.03	
1316.71	169.9	1067.8	
1316.81	169.8	1077.79	
1316.91	169.7	1051.07	
1317.01	169.6	1079.67	
1317.11	169.5	1062.74	
1317.21	169.4	1050.38	
1317.31	169.3	1044.27	
1317.41	169.2	1071.39	
1317.51	169.1	1062.27	
1317.61	169	1058.04	
1317.71	168.9	1086.2	
1317.81	168.8	1070.71	
1317.91	168.7	1084.6	
1318.01	168.6	1073.73	
1318.11	168.5	1085.58	
1318.21	168.4	1061.36	
1318.31	168.3	1054.67	
1318.41	168.2	1077.97	
1318.51	168.1	1046.97	
1318.61	168	1074.34	
1318.71	167.9	1063.4	
1318.81	167.8	1068.43	
1318.91	167.7	1093.06	
1319.01	167.6	1043.37	
1319.11	167.5	1044.62	
1319.21	167.4	1065.58	
1319.31	167.3	1069.03	
1319.41	167.2	1110.34	
1319.51	167.1	1082.71	
1319.61	167	1055.45	
1319.71	166.9	1056.66	
1319.81	166.8	1062.13	
1319.91	166.7	1066.64	
1320.01	166.6	1062.67	
1320.11	166.5	1058.76	
1320.21	166.4	1055.83	
1320.31	166.3	1044.24	
1320.41	166.2	1041.88	
1320.51	166.1	1067.8	
1320.61	166	1064.25	
1320.71	165.9	1053.89	
1320.81	165.8	1059.6	
1320.91	165.7	1065.56	
1321.01	165.6	1053.91	
1321.11	165.5	1071.07	
1321.21	165.4	1072.72	
1321.31	165.3	1068.73	
1321.41	165.2	1079.17	
1321.51	165.1	1090	
1321.61	165	1085.7	
1321.71	164.9	1061.95	
1321.81	164.8	1069.77	
1321.91	164.7	1066.75	
1322.01	164.6	1084.78	
1322.11	164.5	1096.81	
1322.21	164.4	1095.51	
1322.31	164.3	1087.26	
1322.41	164.2	1083.69	
1322.51	164.1	1070.75	
1322.61	164	1067.93	
1322.71	163.9	1079.03	
1322.81	163.8	1089.13	
1322.91	163.7	1086.98	
1323.01	163.6	1083.94	
1323.11	163.5	1062.56	
1323.21	163.4	1065.31	
1323.31	163.3	1087.46	
1323.41	163.2	1095.34	
1323.51	163.1	1081.74	
1323.61	163	1095.52	
1323.71	162.9	1101.33	
1323.81	162.8	1083.21	
1323.91	162.7	1071.18	
1324.01	162.6	1093.67	
1324.11	162.5	1096.16	
1324.21	162.4	1098.17	
1324.31	162.3	1105.77	
1324.41	162.2	1083.17	
1324.51	162.1	1069.53	
1324.61	162	1074.95	
1324.71	161.9	1080.25	
1324.81	161.8	1069.63	
1324.91	161.7	1090.13	
1325.01	161.6	1062.01	
1325.11	161.5	1084.69	
1325.21	161.4	1086.69	
1325.31	161.3	1077.23	
1325.41	161.2	1075.48	
1325.51	161.1	1114.2	
1325.61	161	1071.64	
1325.71	160.9	1066.53	
1325.81	160.8	1076.25	
1325.91	160.7	1088.87	
1326.01	160.6	1077.02	
1326.11	160.5	1099.34	
1326.21	160.4	1099.99	
1326.31	160.3	1105.53	
1326.41	160.2	1104.26	
1326.51	160.1	1066.77	
1326.61	160	1090.56	
1326.71	159.9	1085.49	
1326.81	159.8	1062.63	
1326.91	159.7	1084.39	
1327.01	159.6	1103.57	
1327.11	159.5	1094.83	
1327.21	159.4	1075.97	
1327.31	159.3	1080.77	
1327.41	159.2	1089.78	
1327.51	159.1	1086.14	
1327.61	159	1065.32	
1327.71	158.9	1089.93	
1327.81	158.8	1075.09	
1327.91	158.7	1062.59	
1328.01	158.6	1079.21	
1328.11	158.5	1071.84	
1328.21	158.4	1073.37	
1328.31	158.3	1103.76	
1328.41	158.2	1102.56	
1328.51	158.1	1117.36	
1328.61	158	1087.11	
1328.71	157.9	1066.98	
1328.81	157.8	1079.65	
1328.91	157.7	1086.79	
1329.01	157.6	1076.56	
1329.11	157.5	1087.99	
1329.21	157.4	1086.4	
1329.31	157.3	1086.68	
1329.41	157.2	1101.12	
1329.51	157.1	1084.25	
1329.61	157	1116.1	
1329.71	156.9	1102.33	
1329.81	156.8	1081.22	
1329.91	156.7	1107.64	
1330.01	156.6	1062.19	
1330.11	156.5	1067.74	
1330.21	156.4	1108.55	
1330.31	156.3	1113.43	
1330.41	156.2	1130.11	
1330.51	156.1	1112.17	
1330.61	156	1071.41	
1330.71	155.9	1094.67	
1330.81	155.8	1090.79	
1330.91	155.7	1098.14	
1331.01	155.6	1093.4	
1331.11	155.5	1089.25	
1331.21	155.4	1090.36	
1331.31	155.3	1070.97	
1331.41	155.2	1101.16	
1331.51	155.1	1116.2	
1331.61	155	1128.15	
1331.71	154.9	1115.93	
1331.81	154.8	1063.29	
1331.91	154.7	1078.79	
1332.01	154.6	1105.17	
1332.11	154.5	1108.6	
1332.21	154.4	1089.47	
1332.31	154.3	1080.42	
1332.41	154.2	1103.27	
1332.51	154.1	1103.8	
1332.61	154	1092.74	
1332.71	153.9	1080.82	
1332.81	153.8	1097.1	
1332.91	153.7	1104.59	
1333.01	153.6	1090.18	
1333.11	153.5	1091.84	
1333.21	153.4	1082.18	
1333.31	153.3	1075.75	
1333.41	153.2	1094.73	
1333.51	153.1	1093.65	
1333.61	153	1098.87	
1333.71	152.9	1115.23	
1333.81	152.8	1140.68	
1333.91	152.7	1086.69	
1334.01	152.6	1107.98	
1334.11	152.5	1125.31	
1334.21	152.4	1086.38	
1334.31	152.3	1109.2	
1334.41	152.2	1103.27	
1334.51	152.1	1105.27	
1334.61	152	1147.93	
1334.71	151.9	1082.3	
1334.81	151.8	1106.03	
1334.91	151.7	1093.84	
1335.01	151.6	1084.53	
1335.11	151.5	1128.68	
1335.21	151.4	1093.77	
1335.31	151.3	1071.97	
1335.41	151.2	1090.32	
1335.51	151.1	1098.07	
1335.61	151	1131.03	
1335.71	150.9	1134.68	
1335.81	150.8	1112.1	
1335.91	150.7	1123.53	
1336.01	150.6	1081.71	
1336.11	150.5	1079.51	
1336.21	150.4	1078.43	
1336.31	150.3	1120.81	
1336.41	150.2	1147.38	
1336.51	150.1	1118.97	
1336.61	150	1117.72	
1336.71	149.9	1100.64	
1336.81	149.8	1124.71	
1336.91	149.7	1130.99	
1337.01	149.6	1116.01	
1337.11	149.5	1096.24	
1337.21	149.4	1101.9	
1337.31	149.3	1115.67	
1337.41	149.2	1099.69	
1337.51	149.1	1121.62	
1337.61	149	1122.2	
1337.71	148.9	1117.02	
1337.81	148.8	1129.81	
1337.91	148.7	1130.88	
1338.01	148.6	1122	
1338.11	148.5	1114.01	
1338.21	148.4	1127.06	
1338.31	148.3	1111.36	
1338.41	148.2	1097.43	
1338.51	148.1	1104.47	
1338.61	148	1130.8	
1338.71	147.9	1100.4	
1338.81	147.8	1101.92	
1338.91	147.7	1121.64	
1339.01	147.6	1097.74	
1339.11	147.5	1128.88	
1339.21	147.4	1104.69	
1339.31	147.3	1123.09	
1339.41	147.2	1102.08	
1339.51	147.1	1112.62	
1339.61	147	1122.77	
1339.71	146.9	1106.78	
1339.81	146.8	1097.47	
1339.91	146.7	1129.41	
1340.01	146.6	1112.89	
1340.11	146.5	1105.22	
1340.21	146.4	1113.38	
1340.31	146.3	1107.7	
1340.41	146.2	1103.35	
1340.51	146.1	1086.9	
1340.61	146	1109.62	
1340.71	145.9	1117.08	
1340.81	145.8	1102.49	
1340.91	145.7	1102.07	
1341.01	145.6	1109.5	
1341.11	145.5	1123.98	
1341.21	145.4	1107.22	
1341.31	145.3	1114.64	
1341.41	145.2	1098.62	
1341.51	145.1	1101.92	
1341.61	145	1108.19	
1341.71	144.9	1119.88	
1341.81	144.8	1107.35	
1341.91	144.7	1104.81	
1342.01	144.6	1139.56	
1342.11	144.5	1121.23	
1342.21	144.4	1102.23	
1342.31	144.3	1122.75	
1342.41	144.2	1114.19	
1342.51	144.1	1120.8	
1342.61	144	1125.74	
1342.71	143.9	1149.93	
1342.81	143.8	1124.87	
1342.91	143.7	1119.19	
1343.01	143.6	1107.54	
1343.11	143.5	1132.39	
1343.21	143.4	1130.25	
1343.31	143.3	1111.54	
1343.41	143.2	1120.4	
1343.51	143.1	1098.27	
1343.61	143	1108.02	
1343.71	142.9	1112.48	
1343.81	142.8	1143.37	
1343.91	142.7	1115.31	
1344.01	142.6	1116.36	
1344.11	142.5	1118.81	
1344.21	142.4	1102.58	
1344.31	142.3	1115.61	
1344.41	142.2	1097.33	
1344.51	142.1	1097.38	
1344.61	142	1109.05	
1344.71	141.9	1111.69	
1344.81	141.8	1119.58	
1344.91	141.7	1145.68	
1345.01	141.6	1141.31	
1345.11	141.5	1142.54	
1345.21	141.4	1144.21	
1345.31	141.3	1131.33	
1345.41	141.2	1148.73	
1345.51	141.1	1132.61	
1345.61	141	1134.8	
1345.71	140.9	1120.83	
1345.81	140.8	1115.83	
1345.91	140.7	1115.18	
1346.01	140.6	1110.01	
1346.11	140.5	1130.76	
1346.21	140.4	1120.23	
1346.31	140.3	1127.1	
1346.41	140.2	1144.67	
1346.51	140.1	1140.25	
1346.61	140	1148.39	
1346.71	139.9	1130.43	
1346.81	139.8	1115.58	
1346.91	139.7	1109.15	
1347.01	139.6	1105.82	
1347.11	139.5	1122.51	
1347.21	139.4	1114.94	
1347.31	139.3	1107.6	
1347.41	139.2	1102.13	
1347.51	139.1	1107.88	
1347.61	139	1130.16	
1347.71	138.9	1135.58	
1347.81	138.8	1118.15	
1347.91	138.7	1107.95	
1348.01	138.6	1115.5	
1348.11	138.5	1118.37	
1348.21	138.4	1133.33	
1348.31	138.3	1125.27	
1348.41	138.2	1137.39	
1348.51	138.1	1106.44	
1348.61	138	1136.09	
1348.71	137.9	1140.13	
1348.81	137.8	1118.74	
1348.91	137.7	1119.51	
1349.01	137.6	1120.61	
1349.11	137.5	1108.78	
1349.21	137.4	1111.08	
1349.31	137.3	1114.88	
1349.41	137.2	1123.28	
1349.51	137.1	1132.33	
1349.61	137	1111.07	
1349.71	136.9	1109.86	
1349.81	136.8	1127.18	
1349.91	136.7	1140.76	
1350.01	136.6	1127.27	
1350.11	136.5	1096.03	
1350.21	136.4	1089.55	
1350.31	136.3	1109.95	
1350.41	136.2	1110.39	
1350.51	136.1	1108.7	
1350.61	136	1140.55	
1350.71	135.9	1115.65	
1350.81	135.8	1122.19	
1350.91	135.7	1136.89	
1351.01	135.6	1113.08	
1351.11	135.5	1118.91	
1351.21	135.4	1134.05	
1351.31	135.3	1139.02	
1351.41	135.2	1139.49	
1351.51	135.1	1118.84	
1351.61	135	1105.93	
1351.71	134.9	1132.94	
1351.81	134.8	1110.35	
1351.91	134.7	1112.99	
1352.01	134.6	1124.07	
1352.11	134.5	1131.86	
1352.21	134.4	1116.53	
1352.31	134.3	1126.26	
1352.41	134.2	1130.97	
1352.51	134.1	1124.21	
1352.61	134	1149.33	
1352.71	133.9	1129.49	
1352.81	133.8	1131.03	
1352.91	133.7	1124.39	
1353.01	133.6	1127.04	
1353.11	133.5	1130.57	
1353.21	133.4	1121.23	
1353.31	133.3	1131.5	
1353.41	133.2	1122.23	
1353.51	133.1	1103.66	
1353.61	133	1139.84	
1353.71	132.9	1120.7	
1353.81	132.8	1141.7	
1353.91	132.7	1129.66	
1354.01	132.6	1121.15	
1354.11	132.5	1141.13	
1354.21	132.4	1131.43	
1354.31	132.3	1129.95	
1354.41	132.2	1109.53	
1354.51	132.1	1107.73	
1354.61	132	1128.35	
1354.71	131.9	1146.44	
1354.81	131.8	1147.82	
1354.91	131.7	1122.54	
1355.01	131.6	1124.02	
1355.11	131.5	1139.58	
1355.21	131.4	1147.44	
1355.31	131.3	1118.31	
1355.41	131.2	1132.82	
1355.51	131.1	1135.52	
1355.61	131	1139.37	
1355.71	130.9	1146.28	
1355.81	130.8	1128.78	
1355.91	130.7	1126.02	
1356.01	130.6	1121.92	
1356.11	130.5	1118.04	
1356.21	130.4	1131.48	
1356.31	130.3	1107.67	
1356.41	130.2	1123.55	
1356.51	130.1	1106.35	
1356.61	130	1119.7	
1356.66	129.95	1112.44	
1356.71	129.9	1121.09	
1356.76	129.85	1113.41	
1356.81	129.8	1102.63	
1356.86	129.75	1112.31	
1356.91	129.7	1092.74	
1356.96	129.65	1110.89	
1357.01	129.6	1128.91	
1357.06	129.55	1138.15	
1357.11	129.5	1130.14	
1357.16	129.45	1135.65	
1357.21	129.4	1136.45	
1357.26	129.35	1096.12	
1357.31	129.3	1112.23	
1357.36	129.25	1113.72	
1357.41	129.2	1111.38	
1357.46	129.15	1121.13	
1357.51	129.1	1124.7	
1357.56	129.05	1142.47	
1357.61	129	1135.9	
1357.66	128.95	1146.43	
1357.71	128.9	1107.11	
1357.76	128.85	1125.97	
1357.81	128.8	1107.72	
1357.86	128.75	1101.96	
1357.91	128.7	1129.17	
1357.96	128.65	1121.51	
1358.01	128.6	1113.11	
1358.06	128.55	1113.62	
1358.11	128.5	1116.6	
1358.16	128.45	1093.39	
1358.21	128.4	1099.23	
1358.26	128.35	1090.68	
1358.31	128.3	1123.38	
1358.36	128.25	1104.96	
1358.41	128.2	1123.27	
1358.46	128.15	1124.54	
1358.51	128.1	1114.18	
1358.56	128.05	1113	
1358.61	128	1116.43	
1358.66	127.95	1118.84	
1358.71	127.9	1094.48	
1358.76	127.85	1117.05	
1358.81	127.8	1123.84	
1358.86	127.75	1109.67	
1358.91	127.7	1119.25	
1358.96	127.65	1132.65	
1359.01	127.6	1122.91	
1359.06	127.55	1135.23	
1359.11	127.5	1095.29	
1359.16	127.45	1097.12	
1359.21	127.4	1121.62	
1359.26	127.35	1147.9	
1359.31	127.3	1131.72	
1359.36	127.25	1128.55	
1359.41	127.2	1119.86	
1359.46	127.15	1115.31	
1359.51	127.1	1115.86	
1359.56	127.05	1095.59	
1359.61	127	1115.04	
1359.66	126.95	1123.31	
1359.71	126.9	1146.62	
1359.76	126.85	1126.68	
1359.81	126.8	1109.86	
1359.86	126.75	1101.65	
1359.91	126.7	1114.03	
1359.96	126.65	1118.37	
1360.01	126.6	1092.79	
1360.06	126.55	1116.42	
1360.11	126.5	1132.22	
1360.16	126.45	1117.54	
1360.21	126.4	1115.72	
1360.26	126.35	1117.48	
1360.31	126.3	1120.49	
1360.36	126.25	1136.93	
1360.41	126.2	1113.7	
1360.46	126.15	1115.31	
1360.51	126.1	1109.42	
1360.56	126.05	1123.87	
1360.61	126	1119.09	
1360.66	125.95	1115.24	
1360.71	125.9	1096.04	
1360.76	125.85	1109.32	
1360.81	125.8	1103.44	
1360.86	125.75	1119.65	
1360.91	125.7	1118.95	
1360.96	125.65	1133.88	
1361.01	125.6	1130.15	
1361.06	125.55	1099.3	
1361.11	125.5	1083.75	
1361.16	125.45	1103.05	
1361.21	125.4	1093.91	
1361.26	125.35	1097.98	
1361.31	125.3	1088.73	
1361.36	125.25	1107.31	
1361.41	125.2	1108.01	
1361.46	125.15	1115.12	
1361.51	125.1	1145.08	
1361.56	125.05	1096.88	
1361.61	125	1097.73	
1361.66	124.95	1120.46	
1361.71	124.9	1098.86	
1361.76	124.85	1100.57	
1361.81	124.8	1107.73	
1361.86	124.75	1101.88	
1361.91	124.7	1104.81	
1361.96	124.65	1105.94	
1362.01	124.6	1118.56	
1362.06	124.55	1096.29	
1362.11	124.5	1110.18	
1362.16	124.45	1087.71	
1362.21	124.4	1097.04	
1362.26	124.35	1084.79	
1362.31	124.3	1101.83	
1362.36	124.25	1121.96	
1362.41	124.2	1117.97	
1362.46	124.15	1101.07	
1362.51	124.1	1113.96	
1362.56	124.05	1110.21	
1362.61	124	1118.67	
1362.66	123.95	1129.62	
1362.71	123.9	1118.51	
1362.76	123.85	1095.88	
1362.81	123.8	1104.27	
1362.86	123.75	1109.15	
1362.91	123.7	1119.34	
1362.96	123.65	1093.42	
1363.01	123.6	1112.95	
1363.06	123.55	1107.74	
1363.11	123.5	1122.66	
1363.16	123.45	1125.9	
1363.21	123.4	1103.41	
1363.26	123.35	1113.22	
1363.31	123.3	1093.68	
1363.36	123.25	1141.83	
1363.41	123.2	1122.29	
1363.46	123.15	1137.05	
1363.51	123.1	1129.17	
1363.56	123.05	1128.69	
1363.61	123	1126.43	
1363.66	122.95	1104.52	
1363.71	122.9	1105.34	
1363.76	122.85	1095.02	
1363.81	122.8	1106.41	
1363.86	122.75	1114.71	
1363.91	122.7	1113.43	
1363.96	122.65	1089.6	
1364.01	122.6	1091.5	
1364.06	122.55	1123.94	
1364.11	122.5	1120.53	
1364.16	122.45	1125.07	
1364.21	122.4	1120.95	
1364.26	122.35	1120.22	
1364.31	122.3	1120.64	
1364.36	122.25	1129.27	
1364.41	122.2	1098.86	
1364.46	122.15	1098.66	
1364.51	122.1	1135.26	
1364.56	122.05	1106.41	
1364.61	122	1104.45	
1364.66	121.95	1118.7	
1364.71	121.9	1108.79	
1364.76	121.85	1108	
1364.81	121.8	1108.58	
1364.86	121.75	1121.48	
1364.91	121.7	1098.04	
1364.96	121.65	1103.02	
1365.01	121.6	1117.83	
1365.06	121.55	1114.54	
1365.11	121.5	1108.31	
1365.16	121.45	1107.43	
1365.21	121.4	1124.69	
1365.26	121.35	1104.76	
1365.31	121.3	1104.39	
1365.36	121.25	1098.32	
1365.41	121.2	1105.19	
1365.46	121.15	1077.28	
1365.51	121.1	1117.29	
1365.56	121.05	1108.66	
1365.61	121	1136.53	
1365.66	120.95	1113.33	
1365.71	120.9	1093.68	
1365.76	120.85	1098.32	
1365.81	120.8	1113.99	
1365.86	120.75	1095.39	
1365.91	120.7	1119.21	
1365.96	120.65	1115.48	
1366.01	120.6	1128.7	
1366.06	120.55	1099.82	
1366.11	120.5	1090.09	
1366.16	120.45	1096.89	
1366.21	120.4	1109.49	
1366.26	120.35	1113.39	
1366.31	120.3	1107.78	
1366.36	120.25	1104.1	
1366.41	120.2	1094.01	
1366.46	120.15	1117.96	
1366.51	120.1	1125.43	
1366.56	120.05	1122.19	
1366.61	120	1147.72	
1366.66	119.95	1148.6	
1366.71	119.9	1114.76	
1366.76	119.85	1102.54	
1366.81	119.8	1086.33	
1366.86	119.75	1131.66	
1366.91	119.7	1111.39	
1366.96	119.65	1117.24	
1367.01	119.6	1092.5	
1367.06	119.55	1092.26	
1367.11	119.5	1106.79	
1367.16	119.45	1114.59	
1367.21	119.4	1141.63	
1367.26	119.35	1128.99	
1367.31	119.3	1117.72	
1367.36	119.25	1126.88	
1367.41	119.2	1125.53	
1367.46	119.15	1122.21	
1367.51	119.1	1112.82	
1367.56	119.05	1131.81	
1367.61	119	1134.69	
1367.66	118.95	1110.52	
1367.71	118.9	1105.03	
1367.76	118.85	1098.1	
1367.81	118.8	1085.32	
1367.86	118.75	1091.37	
1367.91	118.7	1121.31	
1367.96	118.65	1109.7	
1368.01	118.6	1115.81	
1368.06	118.55	1103.77	
1368.11	118.5	1103	
1368.16	118.45	1091.41	
1368.21	118.4	1122.93	
1368.26	118.35	1115.6	
1368.31	118.3	1130.06	
1368.36	118.25	1103.19	
1368.41	118.2	1109.63	
1368.46	118.15	1119.49	
1368.51	118.1	1112.06	
1368.56	118.05	1132.23	
1368.61	118	1135.03	
1368.66	117.95	1128.86	
1368.71	117.9	1099.28	
1368.76	117.85	1113.35	
1368.81	117.8	1104.23	
1368.86	117.75	1100.05	
1368.91	117.7	1120.77	
1368.96	117.65	1127.56	
1369.01	117.6	1120.84	
1369.06	117.55	1085.07	
1369.11	117.5	1112.25	
1369.16	117.45	1107.73	
1369.21	117.4	1111.21	
1369.26	117.35	1113.56	
1369.31	117.3	1114.16	
1369.36	117.25	1126.2	
1369.41	117.2	1091.96	
1369.46	117.15	1134.79	
1369.51	117.1	1116.31	
1369.56	117.05	1117.37	
1369.61	117	1125.22	
1369.66	116.95	1116.62	
1369.71	116.9	1088.42	
1369.76	116.85	1106.44	
1369.81	116.8	1107.28	
1369.86	116.75	1140.17	
1369.91	116.7	1118.9	
1369.96	116.65	1100.71	
1370.01	116.6	1109.6	
1370.06	116.55	1105.93	
1370.11	116.5	1117.86	
1370.16	116.45	1106.15	
1370.21	116.4	1097.4	
1370.26	116.35	1120.07	
1370.31	116.3	1138.41	
1370.36	116.25	1130.15	
1370.41	116.2	1111.22	
1370.46	116.15	1114.51	
1370.51	116.1	1110.15	
1370.56	116.05	1120.8	
1370.61	116	1120.79	
1370.66	115.95	1110.42	
1370.71	115.9	1119.7	
1370.76	115.85	1115.28	
1370.81	115.8	1116.18	
1370.86	115.75	1086.81	
1370.91	115.7	1123.93	
1370.96	115.65	1098.7	
1371.01	115.6	1109.27	
1371.06	115.55	1104.52	
1371.11	115.5	1120.71	
1371.16	115.45	1140.42	
1371.21	115.4	1120.38	
1371.26	115.35	1134.28	
1371.31	115.3	1133.13	
1371.36	115.25	1131.66	
1371.41	115.2	1121.62	
1371.46	115.15	1131.53	
1371.51	115.1	1130.25	
1371.56	115.05	1144.3	
1371.61	115	1138.76	
1371.66	114.95	1118.81	
1371.71	114.9	1129.76	
1371.76	114.85	1107.29	
1371.81	114.8	1131.71	
1371.86	114.75	1139.24	
1371.91	114.7	1135.55	
1371.96	114.65	1154.21	
1372.01	114.6	1139.45	
1372.06	114.55	1126.76	
1372.11	114.5	1131.47	
1372.16	114.45	1107	
1372.21	114.4	1131.82	
1372.26	114.35	1138.75	
1372.31	114.3	1143.61	
1372.36	114.25	1131.99	
1372.41	114.2	1132.52	
1372.46	114.15	1119.78	
1372.51	114.1	1137.81	
1372.56	114.05	1115.19	
1372.61	114	1139.07	
1372.66	113.95	1135.4	
1372.71	113.9	1137.89	
1372.76	113.85	1117.73	
1372.81	113.8	1121.42	
1372.86	113.75	1139.13	
1372.91	113.7	1117.82	
1372.96	113.65	1141.69	
1373.01	113.6	1149.06	
1373.06	113.55	1126.84	
1373.11	113.5	1127.12	
1373.16	113.45	1111.82	
1373.21	113.4	1101.38	
1373.26	113.35	1108.85	
1373.31	113.3	1110.7	
1373.36	113.25	1118.63	
1373.41	113.2	1088.26	
1373.46	113.15	1089.75	
1373.51	113.1	1083.26	
1373.56	113.05	1099.38	
1373.61	113	1098.27	
1373.66	112.95	1103.51	
1373.71	112.9	1109.84	
1373.76	112.85	1102.01	
1373.81	112.8	1082.49	
1373.86	112.75	1089.11	
1373.91	112.7	1076.58	
1373.96	112.65	1085.82	
1374.01	112.6	1099.02	
1374.06	112.55	1089.01	
1374.11	112.5	1094.44	
1374.16	112.45	1100.19	
1374.21	112.4	1079.77	
1374.26	112.35	1082.37	
1374.31	112.3	1064.65	
1374.36	112.25	1073.63	
1374.41	112.2	1072.96	
1374.46	112.15	1072.28	
1374.51	112.1	1035.78	
1374.56	112.05	1083.06	
