c:\users\mark\owncloud\muelheim group\projects\gas phase background\au in n2 300um nozzle\20180228 au gas phase background in n2 - au4f.vms				
Counts per Second				
	Characteristic Energy eV	1486.61	Acquisition Time s	1
KE_Counts per Second	BE_Counts per Second	CPS_Counts per Second		
1306.61	180	1749.09		
1306.71	179.9	1701.72		
1306.81	179.8	1742.13		
1306.91	179.7	1777.65		
1307.01	179.6	1751.9		
1307.11	179.5	1724.2		
1307.21	179.4	1705.87		
1307.31	179.3	1742.01		
1307.41	179.2	1756.58		
1307.51	179.1	1739.05		
1307.61	179	1712.63		
1307.71	178.9	1750.29		
1307.81	178.8	1818.04		
1307.91	178.7	1782.95		
1308.01	178.6	1744.74		
1308.11	178.5	1779.63		
1308.21	178.4	1787.32		
1308.31	178.3	1766.84		
1308.41	178.2	1753.53		
1308.51	178.1	1749.7		
1308.61	178	1754.52		
1308.71	177.9	1759.68		
1308.81	177.8	1758.03		
1308.91	177.7	1743.87		
1309.01	177.6	1741.68		
1309.11	177.5	1769.09		
1309.21	177.4	1778.07		
1309.31	177.3	1705.8		
1309.41	177.2	1744.25		
1309.51	177.1	1778.12		
1309.61	177	1780.51		
1309.71	176.9	1768.17		
1309.81	176.8	1751.57		
1309.91	176.7	1738.31		
1310.01	176.6	1733.59		
1310.11	176.5	1804.42		
1310.21	176.4	1775.39		
1310.31	176.3	1827.77		
1310.41	176.2	1761		
1310.51	176.1	1711.88		
1310.61	176	1742.63		
1310.71	175.9	1745.53		
1310.81	175.8	1724.83		
1310.91	175.7	1736.77		
1311.01	175.6	1783.73		
1311.11	175.5	1750.41		
1311.21	175.4	1743.63		
1311.31	175.3	1766.07		
1311.41	175.2	1773.93		
1311.51	175.1	1739.9		
1311.61	175	1786.34		
1311.71	174.9	1770.95		
1311.81	174.8	1817.75		
1311.91	174.7	1816.36		
1312.01	174.6	1784.13		
1312.11	174.5	1786.26		
1312.21	174.4	1729.35		
1312.31	174.3	1784.71		
1312.41	174.2	1765.32		
1312.51	174.1	1761.52		
1312.61	174	1746.56		
1312.71	173.9	1769.51		
1312.81	173.8	1729.19		
1312.91	173.7	1762.03		
1313.01	173.6	1832.29		
1313.11	173.5	1804.16		
1313.21	173.4	1764.89		
1313.31	173.3	1817.74		
1313.41	173.2	1825.99		
1313.51	173.1	1771.37		
1313.61	173	1783.12		
1313.71	172.9	1758.69		
1313.81	172.8	1757.8		
1313.91	172.7	1815.2		
1314.01	172.6	1847.02		
1314.11	172.5	1788.13		
1314.21	172.4	1777.55		
1314.31	172.3	1840.03		
1314.41	172.2	1813.96		
1314.51	172.1	1839.55		
1314.61	172	1761.24		
1314.71	171.9	1756.67		
1314.81	171.8	1795.48		
1314.91	171.7	1796.05		
1315.01	171.6	1794.7		
1315.11	171.5	1809.31		
1315.21	171.4	1783.67		
1315.31	171.3	1747.11		
1315.41	171.2	1774.25		
1315.51	171.1	1807.21		
1315.61	171	1809.45		
1315.71	170.9	1817.15		
1315.81	170.8	1806.62		
1315.91	170.7	1815.26		
1316.01	170.6	1788.04		
1316.11	170.5	1792.42		
1316.21	170.4	1770.02		
1316.31	170.3	1764.5		
1316.41	170.2	1780.61		
1316.51	170.1	1820.97		
1316.61	170	1769.12		
1316.71	169.9	1779.92		
1316.81	169.8	1797.03		
1316.91	169.7	1787.44		
1317.01	169.6	1759.79		
1317.11	169.5	1770.76		
1317.21	169.4	1822.45		
1317.31	169.3	1730.54		
1317.41	169.2	1782.67		
1317.51	169.1	1818.48		
1317.61	169	1798.7		
1317.71	168.9	1793.34		
1317.81	168.8	1810.34		
1317.91	168.7	1784.07		
1318.01	168.6	1793.35		
1318.11	168.5	1801.21		
1318.21	168.4	1794.12		
1318.31	168.3	1757.85		
1318.41	168.2	1766.67		
1318.51	168.1	1816.04		
1318.61	168	1795.65		
1318.71	167.9	1791.94		
1318.81	167.8	1762.1		
1318.91	167.7	1788.25		
1319.01	167.6	1805.49		
1319.11	167.5	1820.36		
1319.21	167.4	1750.34		
1319.31	167.3	1776.12		
1319.41	167.2	1778.27		
1319.51	167.1	1819.93		
1319.61	167	1818.46		
1319.71	166.9	1781.5		
1319.81	166.8	1819.83		
1319.91	166.7	1812.95		
1320.01	166.6	1821.13		
1320.11	166.5	1806.8		
1320.21	166.4	1769.82		
1320.31	166.3	1851.67		
1320.41	166.2	1831.55		
1320.51	166.1	1807.18		
1320.61	166	1823.34		
1320.71	165.9	1815.85		
1320.81	165.8	1794.3		
1320.91	165.7	1826.97		
1321.01	165.6	1778.8		
1321.11	165.5	1838.26		
1321.21	165.4	1863.48		
1321.31	165.3	1856.15		
1321.41	165.2	1831.67		
1321.51	165.1	1832.45		
1321.61	165	1854.85		
1321.71	164.9	1802.96		
1321.81	164.8	1815.74		
1321.91	164.7	1849.74		
1322.01	164.6	1811.26		
1322.11	164.5	1876.78		
1322.21	164.4	1886.02		
1322.31	164.3	1842.32		
1322.41	164.2	1787.53		
1322.51	164.1	1801.32		
1322.61	164	1796.55		
1322.71	163.9	1795.18		
1322.81	163.8	1860.9		
1322.91	163.7	1848.94		
1323.01	163.6	1837.1		
1323.11	163.5	1834.11		
1323.21	163.4	1806.11		
1323.31	163.3	1835.16		
1323.41	163.2	1809.13		
1323.51	163.1	1836.68		
1323.61	163	1862.5		
1323.71	162.9	1821.21		
1323.81	162.8	1828.66		
1323.91	162.7	1830.17		
1324.01	162.6	1854.3		
1324.11	162.5	1825.12		
1324.21	162.4	1872.66		
1324.31	162.3	1840.23		
1324.41	162.2	1881.7		
1324.51	162.1	1842.42		
1324.61	162	1855.28		
1324.71	161.9	1819.58		
1324.81	161.8	1862.84		
1324.91	161.7	1840.25		
1325.01	161.6	1884.65		
1325.11	161.5	1925.67		
1325.21	161.4	1864.75		
1325.31	161.3	1821.6		
1325.41	161.2	1813.58		
1325.51	161.1	1866.87		
1325.61	161	1838.7		
1325.71	160.9	1818.15		
1325.81	160.8	1855.73		
1325.91	160.7	1825.52		
1326.01	160.6	1834.39		
1326.11	160.5	1882.99		
1326.21	160.4	1812.94		
1326.31	160.3	1808.01		
1326.41	160.2	1804.34		
1326.51	160.1	1826.06		
1326.61	160	1821.68		
1326.71	159.9	1844.34		
1326.81	159.8	1838.98		
1326.91	159.7	1842.31		
1327.01	159.6	1841.35		
1327.11	159.5	1872.77		
1327.21	159.4	1843.81		
1327.31	159.3	1833.01		
1327.41	159.2	1866.61		
1327.51	159.1	1834.28		
1327.61	159	1878.75		
1327.71	158.9	1880.59		
1327.81	158.8	1820.19		
1327.91	158.7	1859.96		
1328.01	158.6	1862.4		
1328.11	158.5	1866.84		
1328.21	158.4	1860.5		
1328.31	158.3	1868.33		
1328.41	158.2	1850.74		
1328.51	158.1	1850.86		
1328.61	158	1957.01		
1328.71	157.9	1870.95		
1328.81	157.8	1868.31		
1328.91	157.7	1867.25		
1329.01	157.6	1881.56		
1329.11	157.5	1863.43		
1329.21	157.4	1853.81		
1329.31	157.3	1861.35		
1329.41	157.2	1861.85		
1329.51	157.1	1850.46		
1329.61	157	1836.96		
1329.71	156.9	1832.82		
1329.81	156.8	1864.21		
1329.91	156.7	1845.05		
1330.01	156.6	1862.1		
1330.11	156.5	1887.07		
1330.21	156.4	1888.18		
1330.31	156.3	1908.47		
1330.41	156.2	1881.81		
1330.51	156.1	1846.14		
1330.61	156	1835.36		
1330.71	155.9	1868.11		
1330.81	155.8	1857.6		
1330.91	155.7	1887.52		
1331.01	155.6	1895.05		
1331.11	155.5	1854.96		
1331.21	155.4	1907.75		
1331.31	155.3	1885.5		
1331.41	155.2	1917.82		
1331.51	155.1	1903.85		
1331.61	155	1878.48		
1331.71	154.9	1908.13		
1331.81	154.8	1883.64		
1331.91	154.7	1920.71		
1332.01	154.6	1898.86		
1332.11	154.5	1918.94		
1332.21	154.4	1895.29		
1332.31	154.3	1899.17		
1332.41	154.2	1913.8		
1332.51	154.1	1888.99		
1332.61	154	1938.93		
1332.71	153.9	1926.83		
1332.81	153.8	1883.51		
1332.91	153.7	1886.42		
1333.01	153.6	1908.55		
1333.11	153.5	1911.72		
1333.21	153.4	1882.22		
1333.31	153.3	1885.86		
1333.41	153.2	1869.7		
1333.51	153.1	1904.64		
1333.61	153	1955.16		
1333.71	152.9	1964.68		
1333.81	152.8	1917.06		
1333.91	152.7	1905.25		
1334.01	152.6	1926.53		
1334.11	152.5	1909.24		
1334.21	152.4	1903.66		
1334.31	152.3	1913.53		
1334.41	152.2	1931.14		
1334.51	152.1	1887.93		
1334.61	152	1860.12		
1334.71	151.9	1880.76		
1334.81	151.8	1885.08		
1334.91	151.7	1933.02		
1335.01	151.6	1975.95		
1335.11	151.5	1930.85		
1335.21	151.4	1914.88		
1335.31	151.3	1922		
1335.41	151.2	1893.17		
1335.51	151.1	1924.87		
1335.61	151	1890.04		
1335.71	150.9	1905.89		
1335.81	150.8	1946.59		
1335.91	150.7	1955.5		
1336.01	150.6	1926.84		
1336.11	150.5	1928.34		
1336.21	150.4	1966.46		
1336.31	150.3	1936.85		
1336.41	150.2	1869.15		
1336.51	150.1	1959.38		
1336.61	150	1902.1		
1336.71	149.9	1946.24		
1336.81	149.8	1913.94		
1336.91	149.7	1972.5		
1337.01	149.6	1904.22		
1337.11	149.5	1892.58		
1337.21	149.4	1898.86		
1337.31	149.3	1895.37		
1337.41	149.2	1897.34		
1337.51	149.1	1974.43		
1337.61	149	1961.32		
1337.71	148.9	1944.86		
1337.81	148.8	1934.08		
1337.91	148.7	1942.95		
1338.01	148.6	1979.17		
1338.11	148.5	1992.56		
1338.21	148.4	1934.61		
1338.31	148.3	1948.26		
1338.41	148.2	1953.69		
1338.51	148.1	1919.19		
1338.61	148	1908.63		
1338.71	147.9	1943.73		
1338.81	147.8	1980.22		
1338.91	147.7	1925.85		
1339.01	147.6	1960.63		
1339.11	147.5	1966		
1339.21	147.4	1941.54		
1339.31	147.3	1886.02		
1339.41	147.2	1953		
1339.51	147.1	1932.66		
1339.61	147	1974.64		
1339.71	146.9	1961.63		
1339.81	146.8	1941.14		
1339.91	146.7	2000.07		
1340.01	146.6	1950.8		
1340.11	146.5	1954.81		
1340.21	146.4	1954.25		
1340.31	146.3	1992.88		
1340.41	146.2	1992.12		
1340.51	146.1	1996.89		
1340.61	146	1979.27		
1340.71	145.9	1928.19		
1340.81	145.8	1920.37		
1340.91	145.7	1946.74		
1341.01	145.6	1966.5		
1341.11	145.5	1890.11		
1341.21	145.4	1941.32		
1341.31	145.3	1947.54		
1341.41	145.2	1929.06		
1341.51	145.1	1915.08		
1341.61	145	1981.57		
1341.71	144.9	1929.95		
1341.81	144.8	1927.39		
1341.91	144.7	1911.63		
1342.01	144.6	1940.4		
1342.11	144.5	1928.99		
1342.21	144.4	1943.29		
1342.31	144.3	1954.91		
1342.41	144.2	1974.65		
1342.51	144.1	1916.29		
1342.61	144	1928.46		
1342.71	143.9	1944.18		
1342.81	143.8	1920.75		
1342.91	143.7	1947.35		
1343.01	143.6	1961.13		
1343.11	143.5	1939.84		
1343.21	143.4	1928.15		
1343.31	143.3	1930.72		
1343.41	143.2	1973.48		
1343.51	143.1	2015.37		
1343.61	143	1946.23		
1343.71	142.9	1940.84		
1343.81	142.8	1963.84		
1343.91	142.7	1967.84		
1344.01	142.6	1981.53		
1344.11	142.5	1935.16		
1344.21	142.4	1966.09		
1344.31	142.3	2002.94		
1344.41	142.2	1955.87		
1344.51	142.1	1918.47		
1344.61	142	1917.32		
1344.71	141.9	1916.04		
1344.81	141.8	1961.91		
1344.91	141.7	1934.84		
1345.01	141.6	1979.51		
1345.11	141.5	1980.97		
1345.21	141.4	1976.04		
1345.31	141.3	1929.19		
1345.41	141.2	1949.37		
1345.51	141.1	1934.08		
1345.61	141	1933.2		
1345.71	140.9	1968.82		
1345.81	140.8	1961.55		
1345.91	140.7	1987.24		
1346.01	140.6	1970.16		
1346.11	140.5	1954.74		
1346.21	140.4	1941.39		
1346.31	140.3	1971.98		
1346.41	140.2	1922.65		
1346.51	140.1	1940.23		
1346.61	140	1988.47		
1346.71	139.9	1999.98		
1346.81	139.8	1963.09		
1346.91	139.7	1997.64		
1347.01	139.6	1976.78		
1347.11	139.5	1984.19		
1347.21	139.4	1993.58		
1347.31	139.3	2002.91		
1347.41	139.2	2009.3		
1347.51	139.1	1981.26		
1347.61	139	1958.05		
1347.71	138.9	1968.68		
1347.81	138.8	2034.98		
1347.91	138.7	1957.53		
1348.01	138.6	1965.65		
1348.11	138.5	2016.42		
1348.21	138.4	2012.91		
1348.31	138.3	1975.81		
1348.41	138.2	2016.24		
1348.51	138.1	1960.29		
1348.61	138	1986.31		
1348.71	137.9	1934.84		
1348.81	137.8	1959.1		
1348.91	137.7	2034.51		
1349.01	137.6	1999.43		
1349.11	137.5	2038.67		
1349.21	137.4	2044.48		
1349.31	137.3	1992.34		
1349.41	137.2	1945.09		
1349.51	137.1	2009.83		
1349.61	137	2016.73		
1349.71	136.9	2015.47		
1349.81	136.8	2026.14		
1349.91	136.7	2020.33		
1350.01	136.6	1964.74		
1350.11	136.5	1976.53		
1350.21	136.4	2008.47		
1350.31	136.3	2001.93		
1350.41	136.2	2016.76		
1350.51	136.1	2027.1		
1350.61	136	2009.33		
1350.71	135.9	2002.7		
1350.81	135.8	2011.85		
1350.91	135.7	2023.66		
1351.01	135.6	2079.16		
1351.11	135.5	2081.2		
1351.21	135.4	1995.23		
1351.31	135.3	2046.15		
1351.41	135.2	2000.34		
1351.51	135.1	2027.77		
1351.61	135	2037.43		
1351.71	134.9	2016.95		
1351.81	134.8	2022.67		
1351.91	134.7	2029.91		
1352.01	134.6	2012.98		
1352.11	134.5	1997.3		
1352.21	134.4	2007.69		
1352.31	134.3	2031.55		
1352.41	134.2	2066.82		
1352.51	134.1	2013.49		
1352.61	134	2025.95		
1352.71	133.9	2026.53		
1352.81	133.8	2059.5		
1352.91	133.7	2074.92		
1353.01	133.6	2065.79		
1353.11	133.5	1995.96		
1353.21	133.4	2035.39		
1353.31	133.3	2053.24		
1353.41	133.2	2040.24		
1353.51	133.1	2006.44		
1353.61	133	2085.49		
1353.71	132.9	2050.13		
1353.81	132.8	2045.57		
1353.91	132.7	2040.02		
1354.01	132.6	1990.29		
1354.11	132.5	2017.2		
1354.21	132.4	2044.39		
1354.31	132.3	2096.79		
1354.41	132.2	2134.64		
1354.51	132.1	2049.49		
1354.61	132	2070.41		
1354.71	131.9	2051.13		
1354.81	131.8	2061.79		
1354.91	131.7	2048.06		
1355.01	131.6	2025.38		
1355.11	131.5	2015.09		
1355.21	131.4	2059.86		
1355.31	131.3	2081.19		
1355.41	131.2	2105.06		
1355.51	131.1	2041.09		
1355.61	131	2035.84		
1355.71	130.9	2073.97		
1355.81	130.8	2097.64		
1355.91	130.7	2088.21		
1356.01	130.6	2079.27		
1356.11	130.5	2065.8		
1356.21	130.4	2098.63		
1356.31	130.3	2107.26		
1356.41	130.2	2031.47		
1356.51	130.1	2062.36		
1356.61	130	2061.88		
1356.66	129.95	2080.93		
1356.71	129.9	2111.91		
1356.76	129.85	2059.9		
1356.81	129.8	2088.15		
1356.86	129.75	2068.29		
1356.91	129.7	2057.53		
1356.96	129.65	2080.5		
1357.01	129.6	2142.9		
1357.06	129.55	2023.6		
1357.11	129.5	2053.07		
1357.16	129.45	2049.22		
1357.21	129.4	2063.69		
1357.26	129.35	2111.15		
1357.31	129.3	2138.99		
1357.36	129.25	2112.32		
1357.41	129.2	2032.73		
1357.46	129.15	2064.44		
1357.51	129.1	2073.12		
1357.56	129.05	2102.98		
1357.61	129	2097.06		
1357.66	128.95	2111.95		
1357.71	128.9	2121.49		
1357.76	128.85	2090.15		
1357.81	128.8	2085		
1357.86	128.75	2084.34		
1357.91	128.7	2114.88		
1357.96	128.65	2078.66		
1358.01	128.6	2095.5		
1358.06	128.55	2074.83		
1358.11	128.5	2069.18		
1358.16	128.45	2072.1		
1358.21	128.4	2086.5		
1358.26	128.35	2090.8		
1358.31	128.3	2124.25		
1358.36	128.25	2090.48		
1358.41	128.2	2087.21		
1358.46	128.15	2098.55		
1358.51	128.1	2090.16		
1358.56	128.05	2139.42		
1358.61	128	2147.78		
1358.66	127.95	2060.36		
1358.71	127.9	2106.2		
1358.76	127.85	2100.91		
1358.81	127.8	2112.19		
1358.86	127.75	2060.64		
1358.91	127.7	2099.36		
1358.96	127.65	2098.43		
1359.01	127.6	2075.41		
1359.06	127.55	2099.32		
1359.11	127.5	2149.44		
1359.16	127.45	2136.76		
1359.21	127.4	2108.81		
1359.26	127.35	2099.61		
1359.31	127.3	2067.19		
1359.36	127.25	2094.75		
1359.41	127.2	2092.13		
1359.46	127.15	2069.75		
1359.51	127.1	2125.11		
1359.56	127.05	2101.1		
1359.61	127	2140.21		
1359.66	126.95	2150.87		
1359.71	126.9	2120.67		
1359.76	126.85	2098.89		
1359.81	126.8	2157.57		
1359.86	126.75	2112.87		
1359.91	126.7	2067.3		
1359.96	126.65	2081.79		
1360.01	126.6	2104.68		
1360.06	126.55	2088.95		
1360.11	126.5	2081.96		
1360.16	126.45	2146.44		
1360.21	126.4	2145.45		
1360.26	126.35	2159.48		
1360.31	126.3	2132.16		
1360.36	126.25	2087.42		
1360.41	126.2	2109.47		
1360.46	126.15	2140.55		
1360.51	126.1	2192.1		
1360.56	126.05	2128.58		
1360.61	126	2143.48		
1360.66	125.95	2063.45		
1360.71	125.9	2107.35		
1360.76	125.85	2083.22		
1360.81	125.8	2092.91		
1360.86	125.75	2141.58		
1360.91	125.7	2113.46		
1360.96	125.65	2163.88		
1361.01	125.6	2160.75		
1361.06	125.55	2116.24		
1361.11	125.5	2106.28		
1361.16	125.45	2132.97		
1361.21	125.4	2111.19		
1361.26	125.35	2168.96		
1361.31	125.3	2166.13		
1361.36	125.25	2133.39		
1361.41	125.2	2144.56		
1361.46	125.15	2154.66		
1361.51	125.1	2121.2		
1361.56	125.05	2193.1		
1361.61	125	2164.23		
1361.66	124.95	2170.21		
1361.71	124.9	2158.18		
1361.76	124.85	2189.27		
1361.81	124.8	2203.26		
1361.86	124.75	2146.97		
1361.91	124.7	2146.5		
1361.96	124.65	2172.51		
1362.01	124.6	2150.73		
1362.06	124.55	2206.11		
1362.11	124.5	2179.65		
1362.16	124.45	2172.9		
1362.21	124.4	2144.32		
1362.26	124.35	2124.35		
1362.31	124.3	2129.54		
1362.36	124.25	2110.11		
1362.41	124.2	2185.39		
1362.46	124.15	2259.75		
1362.51	124.1	2177.6		
1362.56	124.05	2179.91		
1362.61	124	2201.43		
1362.66	123.95	2188.97		
1362.71	123.9	2180.67		
1362.76	123.85	2113.34		
1362.81	123.8	2192.07		
1362.86	123.75	2204.39		
1362.91	123.7	2181.46		
1362.96	123.65	2150.99		
1363.01	123.6	2151.5		
1363.06	123.55	2202.55		
1363.11	123.5	2224.12		
1363.16	123.45	2229.1		
1363.21	123.4	2230.59		
1363.26	123.35	2181.63		
1363.31	123.3	2156.81		
1363.36	123.25	2187.77		
1363.41	123.2	2175.8		
1363.46	123.15	2223.29		
1363.51	123.1	2166.82		
1363.56	123.05	2203.27		
1363.61	123	2211.53		
1363.66	122.95	2190.41		
1363.71	122.9	2222.65		
1363.76	122.85	2159.5		
1363.81	122.8	2192.28		
1363.86	122.75	2140.29		
1363.91	122.7	2225.58		
1363.96	122.65	2203.89		
1364.01	122.6	2187.36		
1364.06	122.55	2139.23		
1364.11	122.5	2204.79		
1364.16	122.45	2229.47		
1364.21	122.4	2218		
1364.26	122.35	2230.02		
1364.31	122.3	2224.17		
1364.36	122.25	2174.82		
1364.41	122.2	2192.55		
1364.46	122.15	2182.41		
1364.51	122.1	2227.41		
1364.56	122.05	2272.52		
1364.61	122	2231.85		
1364.66	121.95	2197.97		
1364.71	121.9	2180.7		
1364.76	121.85	2213.39		
1364.81	121.8	2229.83		
1364.86	121.75	2216.92		
1364.91	121.7	2308.18		
1364.96	121.65	2252.37		
1365.01	121.6	2219.39		
1365.06	121.55	2244.14		
1365.11	121.5	2233.01		
1365.16	121.45	2222.5		
1365.21	121.4	2219.93		
1365.26	121.35	2229.41		
1365.31	121.3	2273.7		
1365.36	121.25	2216.73		
1365.41	121.2	2219.13		
1365.46	121.15	2291.81		
1365.51	121.1	2255.45		
1365.56	121.05	2212.15		
1365.61	121	2233.14		
1365.66	120.95	2227.67		
1365.71	120.9	2242.96		
1365.76	120.85	2290.85		
1365.81	120.8	2243.42		
1365.86	120.75	2265.77		
1365.91	120.7	2282.33		
1365.96	120.65	2246.42		
1366.01	120.6	2279.79		
1366.06	120.55	2289.45		
1366.11	120.5	2285.75		
1366.16	120.45	2234.47		
1366.21	120.4	2246.89		
1366.26	120.35	2267.74		
1366.31	120.3	2283.3		
1366.36	120.25	2241.64		
1366.41	120.2	2271.87		
1366.46	120.15	2238.86		
1366.51	120.1	2223.78		
1366.56	120.05	2238.68		
1366.61	120	2226.19		
1366.66	119.95	2214.63		
1366.71	119.9	2286.75		
1366.76	119.85	2316.88		
1366.81	119.8	2306.57		
1366.86	119.75	2275.55		
1366.91	119.7	2252.07		
1366.96	119.65	2275.35		
1367.01	119.6	2247.08		
1367.06	119.55	2275.44		
1367.11	119.5	2277.2		
1367.16	119.45	2273.35		
1367.21	119.4	2266.45		
1367.26	119.35	2310.12		
1367.31	119.3	2271.82		
1367.36	119.25	2301.04		
1367.41	119.2	2224.24		
1367.46	119.15	2269.31		
1367.51	119.1	2235.32		
1367.56	119.05	2249.16		
1367.61	119	2248.16		
1367.66	118.95	2237.16		
1367.71	118.9	2251.47		
1367.76	118.85	2286.37		
1367.81	118.8	2330.72		
1367.86	118.75	2306.46		
1367.91	118.7	2326.14		
1367.96	118.65	2302.45		
1368.01	118.6	2264.76		
1368.06	118.55	2325.09		
1368.11	118.5	2224.16		
1368.16	118.45	2310.42		
1368.21	118.4	2290.79		
1368.26	118.35	2286.31		
1368.31	118.3	2281.22		
1368.36	118.25	2242.55		
1368.41	118.2	2290.76		
1368.46	118.15	2235.6		
1368.51	118.1	2236.73		
1368.56	118.05	2280.89		
1368.61	118	2300.57		
1368.66	117.95	2296.04		
1368.71	117.9	2311.75		
1368.76	117.85	2254.96		
1368.81	117.8	2231.48		
1368.86	117.75	2308.91		
1368.91	117.7	2307.85		
1368.96	117.65	2331.9		
1369.01	117.6	2311.95		
1369.06	117.55	2256.15		
1369.11	117.5	2243.92		
1369.16	117.45	2270		
1369.21	117.4	2287.7		
1369.26	117.35	2283.86		
1369.31	117.3	2296.59		
1369.36	117.25	2252.48		
1369.41	117.2	2294.08		
1369.46	117.15	2310.77		
1369.51	117.1	2245.04		
1369.56	117.05	2232.72		
1369.61	117	2312.11		
1369.66	116.95	2265.18		
1369.71	116.9	2287.28		
1369.76	116.85	2314.53		
1369.81	116.8	2303.1		
1369.86	116.75	2271.68		
1369.91	116.7	2261.2		
1369.96	116.65	2300.65		
1370.01	116.6	2245.77		
1370.06	116.55	2331.19		
1370.11	116.5	2320.62		
1370.16	116.45	2323.69		
1370.21	116.4	2274.63		
1370.26	116.35	2241.46		
1370.31	116.3	2263.71		
1370.36	116.25	2270.09		
1370.41	116.2	2267.04		
1370.46	116.15	2295.76		
1370.51	116.1	2294.83		
1370.56	116.05	2337.7		
1370.61	116	2348.04		
1370.66	115.95	2274.19		
1370.71	115.9	2311.79		
1370.76	115.85	2289.42		
1370.81	115.8	2311.01		
1370.86	115.75	2275.02		
1370.91	115.7	2293.85		
1370.96	115.65	2327.48		
1371.01	115.6	2293.98		
1371.06	115.55	2246.28		
1371.11	115.5	2325.24		
1371.16	115.45	2332.83		
1371.21	115.4	2312.43		
1371.26	115.35	2349.37		
1371.31	115.3	2300.21		
1371.36	115.25	2269.96		
1371.41	115.2	2303		
1371.46	115.15	2317.65		
1371.51	115.1	2333.57		
1371.56	115.05	2347.12		
1371.61	115	2308.88		
1371.66	114.95	2322.39		
1371.71	114.9	2362.3		
1371.76	114.85	2374.99		
1371.81	114.8	2301.71		
1371.86	114.75	2328.36		
1371.91	114.7	2372.51		
1371.96	114.65	2356.37		
1372.01	114.6	2302.81		
1372.06	114.55	2309.14		
1372.11	114.5	2328.97		
1372.16	114.45	2324.06		
1372.21	114.4	2293.29		
1372.26	114.35	2351.92		
1372.31	114.3	2312.25		
1372.36	114.25	2358.06		
1372.41	114.2	2364.48		
1372.46	114.15	2296.27		
1372.51	114.1	2319.88		
1372.56	114.05	2328.27		
1372.61	114	2351.47		
1372.66	113.95	2371.59		
1372.71	113.9	2324.9		
1372.76	113.85	2351.23		
